 Summary of calculated dose in uSv/h 
              1              2              3              4              5              6              7              8              9             10             11             12             13             14             15             16             17             18             19             20             21             22             23             24             25             26             27             28             29             30             31             32             33             34             35             36             37             38             39             40             41             42
        FFP(MV)         Rc(Gv)   Depth(g/cm2)              g         neutro         proton         he---4         li---7         be---9         b---11         c---12         n---14         o---16         f---19         ne--20         na--23         mg--24         al--27         si--28         p---31         s---32         cl--35         ar--40         k---39         ca--40         sc--45         ti--48         v---51         cr--52         mn--55         fe--56         co--59         ni--59         muplus         mumins         electr         positr         photon         total-
  3.400000e+001  1.140000e+001  1.030000e+003  1.500000e-001  4.440406e-003  9.540829e-004  1.687430e-006  1.444183e-008  1.968490e-009  1.302480e-009  1.366790e-009  7.457867e-010  9.510179e-011  3.525753e-025  6.044483e-032  1.202945e-032  9.140579e-032  1.500728e-032  7.621793e-032  2.508451e-033  1.412917e-032  1.746894e-033  4.213614e-033  1.978405e-033  9.266198e-040  1.301779e-040  4.197830e-040  2.448323e-040  5.208017e-040  5.560383e-040  7.587559e-039  8.086957e-041  3.866311e-040  1.174749e-002  1.018164e-002  1.253685e-003  1.115769e-003  2.182064e-003  3.187684e-002
  3.400000e+001  1.140000e+001  1.030000e+003 -1.000000e-001  9.540548e-003  1.908166e-003  3.374859e-006  2.888367e-008  3.936981e-009  2.604960e-009  2.733580e-009  1.491573e-009  1.902036e-010  7.051506e-025  1.208897e-031  2.405889e-032  1.828116e-031  3.001456e-032  1.524359e-031  5.016902e-033  2.825834e-032  3.493788e-033  8.427227e-033  3.956810e-033  1.853240e-039  2.603559e-040  8.395660e-040  4.896645e-040  1.041603e-039  1.112077e-039  1.517512e-038  1.617391e-040  7.732622e-040  2.349498e-002  2.036327e-002  2.507370e-003  2.231537e-003  4.364127e-003  6.441341e-002
